#F
# Sample c=  5.77 mg/ml
#S 1 Scan File
# Image =  1 
# Dim_1 =  1280 
# Dummy = -2.000000e+00 
# DDummy =  1.000000e-01 
# SampleDistance =  2.425000e+00 
# WaveLength =  9.310000e-11 
# Title = DiodeCurr=2.04445e-05, MachCurr=85.6367 mA, Concentration=5.77, Comments: bsa2, Code: BSA, Mask: /data/id14eh3/archive/CALIBRATION/MASK/Pcon_01Apr_msk.edf, Normalisation: 1.0 
# History-1 = saxs_mac +var +pass -omod n -i1err _i1val -i1dum -2 -otit "DiodeCurr=2.04445e-05, MachCurr=85.6367 mA, Concentration=5.77, Comments: bsa2, Code: BSA, Mask: /data/id14eh3/archive/CALIBRATION/MASK/Pcon_01Apr_msk.edf, Normalisation: 1.0" -i1dis 2.425 -i1wvl 0.0931_nm -i1pix 172.0_um 172.0_um -i1cen 871 105 -ofac 48912.9105627 /data/id14eh3/inhouse/saxs_pilatus/Mats/100512/raw/IHLS861_013_01.edf /data/id14eh3/inhouse/saxs_pilatus/Mats/100512/2d/IHLS861_013_01.edf 
# History-2 = saxs_add -omod n /data/id14eh3/inhouse/saxs_pilatus/Mats/100512/2d/IHLS861_013_01.edf /data/id14eh3/archive/CALIBRATION/MASK/Pcon_01Apr_msk.edf /data/id14eh3/inhouse/saxs_pilatus/Mats/100512/misc/IHLS861_013_01.msk 
# History-3 = saxs_angle -omod n -rsys normal -da 360_deg -odim = 1 /data/id14eh3/inhouse/saxs_pilatus/Mats/100512/misc/IHLS861_013_01.msk /data/id14eh3/inhouse/saxs_pilatus/Mats/100512/misc/IHLS861_013_01.ang 
# History-4 = saxs_curves -scf 2_pi -ext .dat -spc "  " /data/id14eh3/inhouse/saxs_pilatus/Mats/100512/misc/IHLS861_013_01.ang /data/id14eh3/inhouse/saxs_pilatus/Mats/100512/1d/IHLS861_013_01.dat 
# 
# 
# 
# 
# 
# 
# 
# 
# 
# 
# 
# 
#L q*nm  I_DiodeCurr=2.04445e-05,  stdde
#N 3 
#
#
#Normalisation: 1.0
#Concentration: 5.77
#Code: BSA
0.0406879  155455000.0  1064270.0 
0.0454748  260328000.0  921348.0 
0.0502616  136380000.0  408101.0 
0.0550484  81109900.0  279572.0 
0.0598352  60985100.0  229649.0 
0.064622  52351800.0  191749.0 
0.0694088  44578700.0  169103.0 
0.0741956  38972200.0  148880.0 
0.0789825  35104900.0  136066.0 
0.0837693  31979700.0  125218.0 
0.0885561  29741900.0  117089.0 
0.0933429  27785700.0  110075.0 
0.0981297  26435000.0  104525.0 
0.102917  25303900.0  99242.4 
0.107703  24191900.0  94573.5 
0.11249  23439400.0  90761.4 
0.117277  22967500.0  87647.9 
0.122064  22374400.0  84852.9 
0.126851  21896600.0  82256.2 
0.131637  21505500.0  79898.8 
0.136424  21046400.0  77593.5 
0.141211  20783800.0  75681.2 
0.145998  20462400.0  73879.4 
0.150784  20274700.0  72260.3 
0.155571  19995500.0  70620.0 
0.160358  19973700.0  69515.2 
0.165145  19718400.0  67934.5 
0.169932  19477600.0  66565.8 
0.174718  19323500.0  65372.6 
0.179505  19234400.0  64316.5 
0.184292  19057100.0  63082.4 
0.189079  18847100.0  61985.6 
0.193866  18721000.0  60979.7 
0.198652  18677800.0  60121.2 
0.203439  18522400.0  59149.9 
0.208226  18349700.0  58149.0 
0.213013  18275600.0  57396.4 
0.217799  18108900.0  56457.7 
0.222586  17966800.0  55620.7 
0.227373  17752200.0  54705.1 
0.23216  17679800.0  53959.5 
0.236946  17608800.0  53322.0 
0.241733  17517700.0  52649.3 
0.24652  17332800.0  51843.3 
0.251307  17254700.0  51178.1 
0.256093  17161200.0  50599.6 
0.26088  17001300.0  49880.3 
0.265667  16905800.0  49263.9 
0.270454  16775500.0  48643.1 
0.27524  16667300.0  48031.0 
0.280027  16490300.0  47377.7 
0.284814  16434400.0  46874.3 
0.2896  16276800.0  46317.0 
0.294387  16115200.0  45702.2 
0.299174  15974100.0  45097.4 
0.303961  15871900.0  44589.5 
0.308747  15791700.0  44156.2 
0.313534  15662600.0  43627.5 
0.318321  15521100.0  43067.9 
0.323107  15354400.0  42505.8 
0.327894  15324100.0  42154.0 
0.332681  15185800.0  41675.6 
0.337467  15051900.0  41189.8 
0.342254  14911000.0  40703.3 
0.347041  14729700.0  40148.2 
0.351828  14669900.0  39834.5 
0.356614  14546400.0  39386.9 
0.361401  14351200.0  38840.1 
0.366188  14202000.0  38356.2 
0.370974  14150800.0  38036.3 
0.375761  13971600.0  37571.4 
0.380547  13817200.0  37121.3 
0.385334  13680900.0  36735.6 
0.390121  13567600.0  37073.7 
0.394907  13430200.0  37149.1 
0.399694  13288000.0  37089.8 
0.404481  13144400.0  36946.6 
0.409267  12975200.0  36679.0 
0.414054  12859800.0  36517.9 
0.418841  12704100.0  36268.4 
0.423627  12621800.0  36141.7 
0.428414  12504100.0  35937.6 
0.4332  12405200.0  36553.9 
0.437987  12264700.0  36824.3 
0.442774  12139200.0  36959.6 
0.44756  12059100.0  37149.0 
0.452347  11964900.0  37227.6 
0.457133  11729300.0  37027.1 
0.46192  11570100.0  37037.2 
0.466706  11452500.0  37190.2 
0.471493  11292300.0  37187.7 
0.47628  11166800.0  37181.9 
0.481066  11034500.0  37149.8 
0.485853  10936400.0  37198.4 
0.490639  10815300.0  37162.1 
0.495426  10670000.0  37041.5 
0.500212  10601400.0  36978.0 
0.504999  10438000.0  37996.5 
0.509785  10333900.0  38326.8 
0.514572  10308400.0  38104.3 
0.519358  10154700.0  37386.2 
0.524145  9997630.0  37122.4 
0.528931  9868620.0  37581.3 
0.533718  9708200.0  37979.4 
0.538504  9570910.0  38266.9 
0.543291  9423200.0  38531.5 
0.548077  9294690.0  38736.1 
0.552864  9206280.0  39068.6 
0.55765  9112260.0  39391.3 
0.562436  9006080.0  39665.6 
0.567223  8814800.0  39671.8 
0.572009  8717130.0  39971.0 
0.576796  8588560.0  40188.3 
0.581582  8504340.0  40349.2 
0.586369  8385620.0  40435.7 
0.591155  8280600.0  40550.6 
0.595941  8164030.0  40722.9 
0.600728  8003750.0  40846.1 
0.605514  7936360.0  41062.6 
0.610301  7855820.0  41076.8 
0.615087  7651700.0  40849.8 
0.619873  7554680.0  40725.7 
0.62466  7505770.0  40886.6 
0.629446  7368570.0  40889.7 
0.634232  7265680.0  40628.7 
0.639019  7218330.0  40942.2 
0.643805  7150030.0  40866.5 
0.648591  7044480.0  40746.5 
0.653378  6874360.0  40457.0 
0.658164  6765590.0  40298.9 
0.66295  6680150.0  40274.1 
0.667737  6580380.0  40257.0 
0.672523  6497450.0  40018.3 
0.677309  6376910.0  39812.4 
0.682095  6268630.0  39930.6 
0.686882  6215460.0  39988.4 
0.691668  6159880.0  39851.4 
0.696454  6040520.0  39586.8 
0.70124  6017160.0  39787.5 
0.706027  5911620.0  39475.6 
0.710813  5766700.0  38933.1 
0.715599  5667920.0  38508.0 
0.720385  5606890.0  38311.7 
0.725172  5515400.0  37889.9 
0.729958  5490370.0  37809.1 
0.734744  5383780.0  37394.0 
0.73953  5361150.0  37277.7 
0.744316  5278710.0  37009.5 
0.749102  5183320.0  36513.6 
0.753889  5047420.0  36093.7 
0.758675  5008870.0  35806.7 
0.763461  4925210.0  35484.1 
0.768247  4836720.0  35152.4 
0.773033  4741220.0  34742.4 
0.777819  4762660.0  34890.9 
0.782605  4704500.0  34555.7 
0.787391  4615080.0  34185.6 
0.792177  4607370.0  34132.8 
0.796964  4516120.0  33789.1 
0.80175  4439490.0  33445.0 
0.806536  4377310.0  33136.9 
0.811322  4281890.0  32812.8 
0.816108  4265210.0  32587.2 
0.820894  4219020.0  32416.7 
0.82568  4159040.0  32152.7 
0.830466  4074970.0  31829.5 
0.835252  4052090.0  31698.9 
0.840038  3954280.0  31262.5 
0.844824  3862160.0  30818.2 
0.84961  3788590.0  30550.8 
0.854396  3803540.0  30566.0 
0.859182  3804300.0  30533.1 
0.863968  3750340.0  30330.6 
0.868754  3671690.0  29939.2 
0.873539  3601820.0  29654.4 
0.878325  3557810.0  29414.1 
0.883111  3497750.0  29092.3 
0.887897  3489080.0  29033.5 
0.892683  3465970.0  28933.8 
0.897469  3400790.0  28618.5 
0.902255  3361000.0  28444.8 
0.907041  3294340.0  28138.9 
0.911826  3278940.0  28065.0 
0.916612  3228090.0  27756.8 
0.921398  3206650.0  27653.8 
0.926184  3148560.0  27309.9 
0.93097  3114880.0  27209.3 
0.935755  3101950.0  27178.3 
0.940541  3059470.0  26897.4 
0.945327  2995850.0  26603.1 
0.950113  3017710.0  26690.1 
0.954898  2936870.0  26295.5 
0.959684  2923650.0  26188.7 
0.96447  2879930.0  25918.1 
0.969256  2830780.0  25719.1 
0.974041  2846420.0  25792.0 
0.978827  2801220.0  25513.2 
0.983613  2751600.0  25303.1 
0.988398  2740230.0  25233.0 
0.993184  2650550.0  24782.1 
0.99797  2662900.0  24774.5 
1.00276  2634270.0  24607.9 
1.00754  2597520.0  24416.5 
1.01233  2586830.0  24392.8 
1.01711  2538380.0  24112.2 
1.0219  2558730.0  24176.3 
1.02668  2492130.0  23845.1 
1.03147  2457800.0  23718.2 
1.03625  2439570.0  23537.2 
1.04104  2439800.0  23535.0 
1.04583  2441220.0  23481.0 
1.05061  2367530.0  23136.0 
1.0554  2359990.0  23098.5 
1.06018  2336410.0  22967.9 
1.06497  2352650.0  22972.7 
1.06975  2312080.0  22767.5 
1.07454  2299870.0  22683.3 
1.07932  2280310.0  22576.3 
1.08411  2255300.0  22419.6 
1.08889  2248980.0  22300.1 
1.09368  2259770.0  22377.7 
1.09847  2212370.0  22105.9 
1.10325  2197340.0  22013.9 
1.10804  2195770.0  21937.2 
1.11282  2193340.0  21863.4 
1.11761  2165540.0  21764.1 
1.12239  2160000.0  21648.5 
1.12718  2119640.0  21445.5 
1.13196  2076590.0  21217.4 
1.13675  2095760.0  21249.2 
1.14153  2085540.0  21194.4 
1.14632  2074510.0  21052.1 
1.1511  2049230.0  20903.3 
1.15589  2041400.0  20855.8 
1.16067  2019610.0  20689.3 
1.16546  2043360.0  20814.1 
1.17025  2034960.0  20721.7 
1.17503  1978250.0  20399.4 
1.17982  1999550.0  20487.9 
1.1846  2012580.0  20516.7 
1.18939  1973420.0  20323.0 
1.19417  1949060.0  20143.7 
1.19896  1961240.0  20182.8 
1.20374  1955560.0  20101.6 
1.20853  1960910.0  20101.8 
1.21331  1945970.0  19997.6 
1.2181  1943050.0  19968.5 
1.22288  1942550.0  19921.0 
1.22767  1904440.0  19722.6 
1.23245  1896700.0  19616.0 
1.23724  1886450.0  19590.2 
1.24202  1876390.0  19517.9 
1.24681  1891750.0  19530.2 
1.25159  1855580.0  19319.4 
1.25638  1872590.0  19398.8 
1.26116  1853210.0  19275.4 
1.26595  1848910.0  19250.0 
1.27073  1835490.0  19149.2 
1.27552  1851680.0  19207.4 
1.2803  1851980.0  19163.1 
1.28509  1833330.0  19007.5 
1.28987  1811700.0  18900.1 
1.29466  1813050.0  18858.6 
1.29944  1823690.0  18913.2 
1.30423  1811510.0  18844.2 
1.30901  1812140.0  18775.5 
1.31379  1798030.0  18707.4 
1.31858  1798870.0  18642.9 
1.32336  1799240.0  18646.6 
1.32815  1805870.0  18670.7 
1.33293  1780720.0  18513.2 
1.33772  1760090.0  18376.7 
1.3425  1785680.0  18485.9 
1.34729  1775300.0  18394.4 
1.35207  1760970.0  18316.3 
1.35686  1732970.0  18120.8 
1.36164  1761210.0  18269.8 
1.36643  1740350.0  18151.0 
1.37121  1738490.0  18109.7 
1.376  1729060.0  18021.6 
1.38078  1725920.0  17973.0 
1.38556  1725010.0  17954.4 
1.39035  1727250.0  17959.1 
1.39513  1740450.0  18012.9 
1.39992  1727970.0  17927.6 
1.4047  1715080.0  17800.3 
1.40949  1727210.0  17804.6 
1.41427  1718860.0  17747.6 
1.41906  1700970.0  17591.6 
1.42384  1717780.0  17676.9 
1.42863  1703900.0  17531.9 
1.43341  1700530.0  17502.0 
1.43819  1684990.0  17379.3 
1.44298  1682640.0  17305.6 
1.44776  1674810.0  17241.8 
1.45255  1692200.0  17289.4 
1.45733  1710720.0  17347.8 
1.46212  1702640.0  17271.3 
1.4669  1684390.0  17141.8 
1.47168  1688280.0  17146.8 
1.47647  1654980.0  16920.6 
1.48125  1643650.0  16827.9 
1.48604  1666310.0  16916.2 
1.49082  1682580.0  16945.5 
1.49561  1658220.0  16802.2 
1.50039  1678770.0  16863.5 
1.50517  1702420.0  16978.5 
1.50996  1669970.0  16763.7 
1.51474  1630900.0  16549.0 
1.51953  1665150.0  16776.7 
1.52431  1640170.0  16704.4 
1.52909  1663880.0  16861.5 
1.53388  1658800.0  16886.7 
1.53866  1621970.0  16755.4 
1.54345  1644430.0  16908.6 
1.54823  1630080.0  16884.7 
1.55301  1625480.0  16896.3 
1.5578  1646870.0  17038.4 
1.56258  1642020.0  17047.2 
1.56737  1624310.0  17004.2 
1.57215  1601420.0  16923.3 
1.57693  1634210.0  17129.8 
1.58172  1602440.0  16995.4 
1.5865  1630160.0  17173.2 
1.59129  1611320.0  17099.1 
1.59607  1603980.0  17091.4 
1.60085  1587020.0  17031.8 
1.60564  1605120.0  17118.3 
1.61042  1593210.0  16973.2 
1.6152  1597910.0  16909.8 
1.61999  1623870.0  17010.8 
1.62477  1607090.0  16867.3 
1.62956  1606900.0  16834.3 
1.63434  1598410.0  16708.7 
1.63912  1590020.0  16605.0 
1.64391  1600990.0  16616.2 
1.64869  1601600.0  16557.9 
1.65347  1585440.0  16440.3 
1.65826  1576710.0  16344.0 
1.66304  1590040.0  16371.6 
1.66782  1576690.0  16271.2 
1.67261  1567890.0  16169.7 
1.67739  1582240.0  16180.4 
1.68217  1578490.0  16127.3 
1.68696  1581600.0  16107.2 
1.69174  1571950.0  16030.0 
1.69652  1570940.0  15972.7 
1.70131  1581250.0  15997.5 
1.70609  1583650.0  15972.6 
1.71087  1564100.0  15826.0 
1.71566  1575250.0  15839.4 
1.72044  1548100.0  15669.9 
1.72522  1568750.0  15744.9 
1.73001  1572700.0  15721.2 
1.73479  1536880.0  15496.2 
1.73957  1536100.0  15456.2 
1.74436  1566390.0  15572.0 
1.74914  1577320.0  15576.2 
1.75392  1571920.0  15553.5 
1.75871  1551890.0  15390.2 
1.76349  1535740.0  15306.5 
1.76827  1540020.0  15276.6 
1.77306  1549990.0  15287.1 
1.77784  1559530.0  15297.6 
1.78262  1541850.0  15181.3 
1.78741  1531580.0  15102.5 
1.79219  1543900.0  15157.9 
1.79697  1551330.0  15137.9 
1.80176  1547200.0  15111.3 
1.80654  1519950.0  14918.1 
1.81132  1527270.0  14921.0 
1.8161  1512260.0  14818.3 
1.82089  1513240.0  14802.3 
1.82567  1513980.0  14783.6 
1.83045  1523530.0  14786.8 
1.83524  1509340.0  14691.2 
1.84002  1497450.0  14610.0 
1.8448  1506230.0  14612.5 
1.84958  1506010.0  14598.0 
1.85437  1512350.0  14594.6 
1.85915  1512220.0  14563.1 
1.86393  1515470.0  14557.9 
1.86872  1515130.0  14528.5 
1.8735  1508960.0  14460.1 
1.87828  1525250.0  14578.1 
1.88306  1511900.0  14559.8 
1.88785  1501180.0  14567.0 
1.89263  1509240.0  14646.7 
1.89741  1521860.0  14766.1 
1.90219  1506870.0  14725.8 
1.90698  1491500.0  14689.4 
1.91176  1485410.0  14636.2 
1.91654  1494310.0  14652.4 
1.92132  1486790.0  14570.7 
1.92611  1495580.0  14598.9 
1.93089  1485440.0  14485.9 
1.93567  1479980.0  14445.4 
1.94045  1483070.0  14399.8 
1.94524  1467110.0  14288.8 
1.95002  1487370.0  14348.2 
1.9548  1480540.0  14280.5 
1.95958  1480860.0  14235.4 
1.96436  1485070.0  14218.2 
1.96915  1485440.0  14187.6 
1.97393  1485740.0  14139.2 
1.97871  1479760.0  14080.6 
1.98349  1496600.0  14118.0 
1.98828  1487540.0  14045.3 
1.99306  1483420.0  13989.2 
1.99784  1476430.0  13911.9 
2.00262  1462640.0  13828.3 
2.0074  1463130.0  13774.9 
2.01219  1464520.0  13765.7 
2.01697  1451990.0  13664.4 
2.02175  1453190.0  13642.1 
2.02653  1465420.0  13666.6 
2.03131  1474470.0  13672.8 
2.0361  1476170.0  13648.9 
2.04088  1453250.0  13508.6 
2.04566  1462400.0  13526.3 
2.05044  1454790.0  13453.7 
2.05522  1441520.0  13375.2 
2.06001  1442880.0  13347.4 
2.06479  1464920.0  13408.8 
2.06957  1450280.0  13328.2 
2.07435  1456830.0  13323.6 
2.07913  1439760.0  13218.5 
2.08391  1465080.0  13311.6 
2.0887  1451760.0  13211.1 
2.09348  1460530.0  13220.1 
2.09826  1463220.0  13199.2 
2.10304  1439950.0  13066.3 
2.10782  1447920.0  13069.7 
2.1126  1451740.0  13077.6 
2.11739  1462970.0  13089.6 
2.12217  1442960.0  12989.0 
2.12695  1443590.0  12954.7 
2.13173  1439230.0  12902.4 
2.13651  1428290.0  12828.7 
2.14129  1423060.0  12782.1 
2.14607  1435500.0  12822.1 
2.15086  1449250.0  12846.6 
2.15564  1450580.0  12841.0 
2.16042  1441160.0  12768.0 
2.1652  1425250.0  12662.0 
2.16998  1443740.0  12718.1 
2.17476  1439630.0  12678.9 
2.17954  1433490.0  12618.0 
2.18432  1436870.0  12622.8 
2.18911  1443680.0  12637.2 
2.19389  1440460.0  12578.2 
2.19867  1423480.0  12490.6 
2.20345  1429620.0  12493.4 
2.20823  1452610.0  12571.7 
2.21301  1416550.0  12388.5 
2.21779  1434250.0  12439.7 
2.22257  1448510.0  12476.8 
2.22735  1427540.0  12363.1 
2.23213  1422980.0  12320.5 
2.23692  1426220.0  12315.2 
2.2417  1419820.0  12267.9 
2.24648  1419930.0  12243.2 
2.25126  1433370.0  12282.1 
2.25604  1434480.0  12262.6 
2.26082  1419910.0  12179.7 
2.2656  1417680.0  12147.3 
2.27038  1426530.0  12166.2 
2.27516  1401590.0  12042.5 
2.27994  1431430.0  12146.6 
2.28472  1430250.0  12108.8 
2.2895  1409690.0  12011.6 
2.29428  1431070.0  12083.6 
2.29907  1410180.0  11966.2 
2.30385  1411600.0  11948.7 
2.30863  1410930.0  11937.1 
2.31341  1409410.0  11883.8 
2.31819  1398360.0  11801.9 
2.32297  1405890.0  11813.2 
2.32775  1403100.0  11739.3 
2.33253  1400690.0  11688.9 
2.33731  1399680.0  11646.3 
2.34209  1407500.0  11659.2 
2.34687  1395910.0  11587.3 
2.35165  1413500.0  11640.7 
2.35643  1415050.0  11628.9 
2.36121  1402790.0  11566.2 
2.36599  1424270.0  11650.1 
2.37077  1418790.0  11626.3 
2.37555  1403640.0  11574.1 
2.38033  1398540.0  11553.6 
2.38511  1386300.0  11506.7 
2.38989  1400970.0  11570.2 
2.39467  1401910.0  11558.2 
2.39945  1402550.0  11547.3 
2.40423  1393990.0  11488.8 
2.40901  1401140.0  11506.7 
2.41379  1405150.0  11494.9 
2.41857  1408280.0  11495.4 
2.42335  1399160.0  11437.0 
2.42813  1408010.0  11453.8 
2.43291  1376350.0  11305.0 
2.43769  1378150.0  11302.1 
2.44247  1386010.0  11315.9 
2.44725  1378090.0  11262.9 
2.45203  1393270.0  11303.6 
2.45681  1401540.0  11327.0 
2.46159  1389700.0  11265.2 
2.46637  1364990.0  11134.9 
2.47115  1367540.0  11135.8 
2.47593  1394560.0  11228.5 
2.48071  1393050.0  11207.8 
2.48549  1377980.0  11129.5 
2.49027  1365470.0  11059.4 
2.49505  1378350.0  11094.0 
2.49983  1385670.0  11104.6 
2.5046  1387880.0  11098.8 
2.50938  1387210.0  11078.8 
2.51416  1387380.0  11065.2 
2.51894  1392750.0  11070.6 
2.52372  1384030.0  11016.0 
2.5285  1379620.0  10985.9 
2.53328  1377160.0  10957.4 
2.53806  1384040.0  10989.2 
2.54284  1359920.0  10918.6 
2.54762  1360290.0  10941.8 
2.5524  1384060.0  11060.1 
2.55718  1369900.0  11019.9 
2.56196  1379940.0  11086.2 
2.56673  1374460.0  11086.2 
2.57151  1363530.0  11064.7 
2.57629  1361230.0  11070.8 
2.58107  1371550.0  11130.5 
2.58585  1368110.0  11130.9 
2.59063  1364050.0  11137.7 
2.59541  1370250.0  11182.2 
2.60019  1380270.0  11238.7 
2.60497  1372650.0  11228.6 
2.60974  1382220.0  11282.0 
2.61452  1354870.0  11184.7 
2.6193  1363250.0  11210.9 
2.62408  1374240.0  11218.7 
2.62886  1367000.0  11165.6 
2.63364  1371200.0  11149.7 
2.63842  1366400.0  11106.2 
2.6432  1384890.0  11152.7 
2.64797  1369740.0  11077.1 
2.65275  1383680.0  11108.8 
2.65753  1363000.0  10994.0 
2.66231  1363290.0  10967.4 
2.66709  1371150.0  10975.6 
2.67187  1356430.0  10906.8 
2.67664  1366420.0  10916.2 
2.68142  1359980.0  10874.8 
2.6862  1374740.0  10909.7 
2.69098  1352550.0  10803.2 
2.69576  1353070.0  10781.7 
2.70054  1373310.0  10841.9 
2.70531  1390150.0  10894.3 
2.71009  1360740.0  10759.2 
2.71487  1365260.0  10761.2 
2.71965  1364790.0  10737.4 
2.72443  1357400.0  10670.1 
2.7292  1345940.0  10606.1 
2.73398  1359460.0  10636.4 
2.73876  1364770.0  10636.0 
2.74354  1376760.0  10664.3 
2.74832  1371480.0  10623.2 
2.75309  1357090.0  10534.6 
2.75787  1359890.0  10538.6 
2.76265  1355390.0  10490.6 
2.76743  1357950.0  10482.1 
2.77221  1352600.0  10437.6 
2.77698  1354720.0  10432.5 
2.78176  1376910.0  10491.1 
2.78654  1370500.0  10450.9 
2.79132  1356710.0  10372.5 
2.79609  1364710.0  10381.0 
2.80087  1364170.0  10364.3 
2.80565  1364930.0  10344.8 
2.81043  1367640.0  10341.7 
2.8152  1367100.0  10315.2 
2.81998  1364240.0  10285.0 
2.82476  1357980.0  10246.6 
2.82954  1363010.0  10236.9 
2.83431  1373450.0  10270.8 
2.83909  1349230.0  10158.0 
2.84387  1355560.0  10168.2 
2.84865  1353440.0  10139.8 
2.85342  1354270.0  10121.2 
2.8582  1359150.0  10116.8 
2.86298  1358250.0  10094.4 
2.86775  1354160.0  10071.7 
2.87253  1366540.0  10093.4 
2.87731  1372400.0  10109.2 
2.88209  1351700.0  10004.0 
2.88686  1353240.0  9994.9 
2.89164  1354220.0  9977.06 
2.89642  1362750.0  9997.83 
2.90119  1364900.0  9984.2 
2.90597  1356210.0  9938.09 
2.91075  1355660.0  9920.19 
2.91552  1335880.0  9831.24 
2.9203  1341970.0  9839.12 
2.92508  1365230.0  9905.25 
2.92985  1339390.0  9797.66 
2.93463  1345820.0  9799.09 
2.93941  1358860.0  9839.7 
2.94418  1343330.0  9766.41 
2.94896  1355970.0  9788.75 
2.95374  1359760.0  9790.09 
2.95851  1351560.0  9746.56 
2.96329  1345070.0  9701.6 
2.96807  1357720.0  9739.05 
2.97284  1363310.0  9737.13 
2.97762  1354180.0  9694.98 
2.98239  1370790.0  9741.17 
2.98717  1347570.0  9642.47 
2.99195  1336430.0  9580.86 
2.99672  1336390.0  9571.0 
3.0015  1332360.0  9537.95 
3.00628  1343780.0  9565.71 
3.01105  1350520.0  9575.74 
3.01583  1350360.0  9562.22 
3.0206  1343020.0  9517.11 
3.02538  1361390.0  9569.27 
3.03016  1356760.0  9545.56 
3.03493  1342880.0  9478.93 
3.03971  1350940.0  9494.63 
3.04448  1344360.0  9453.41 
3.04926  1355290.0  9477.41 
3.05404  1343040.0  9404.93 
3.05881  1332240.0  9343.99 
3.06359  1337260.0  9332.21 
3.06836  1330180.0  9282.86 
3.07314  1347570.0  9328.51 
3.07791  1356700.0  9353.51 
3.08269  1352550.0  9317.93 
3.08747  1353470.0  9310.3 
3.09224  1364480.0  9334.79 
3.09702  1344590.0  9253.5 
3.10179  1351730.0  9265.29 
3.10657  1360970.0  9281.57 
3.11134  1348570.0  9228.71 
3.11612  1343550.0  9199.31 
3.12089  1346900.0  9214.63 
3.12567  1331710.0  9161.0 
3.13044  1339040.0  9190.03 
3.13522  1347520.0  9216.79 
3.13999  1361700.0  9250.35 
3.14477  1347500.0  9185.66 
3.14954  1352790.0  9198.37 
3.15432  1344330.0  9154.89 
3.15909  1353420.0  9169.28 
3.16387  1335910.0  9101.85 
3.16864  1338200.0  9092.75 
3.17342  1334600.0  9069.14 
3.17819  1330220.0  9042.0 
3.18297  1335740.0  9055.24 
3.18774  1338280.0  9047.12 
3.19252  1325470.0  8994.26 
3.19729  1338490.0  9022.53 
3.20207  1343950.0  9037.45 
3.20684  1357820.0  9059.51 
3.21162  1343050.0  9004.88 
3.21639  1328290.0  8944.58 
3.22117  1340680.0  8971.82 
3.22594  1331280.0  8924.19 
3.23072  1333560.0  8919.61 
3.23549  1327080.0  8879.25 
3.24027  1328100.0  8872.62 
3.24504  1331950.0  8863.95 
3.24981  1325510.0  8835.58 
3.25459  1333800.0  8839.6 
3.25936  1328030.0  8811.12 
3.26414  1339340.0  8836.72 
3.26891  1333250.0  8805.94 
3.27369  1337560.0  8802.61 
3.27846  1342400.0  8806.19 
3.28323  1331390.0  8753.08 
3.28801  1332440.0  8741.11 
3.29278  1320950.0  8694.7 
3.29756  1326060.0  8695.14 
3.30233  1336700.0  8714.99 
3.3071  1334270.0  8692.6 
3.31188  1339180.0  8704.52 
3.31665  1332680.0  8669.09 
3.32142  1329580.0  8642.78 
3.3262  1347670.0  8689.06 
3.33097  1321850.0  8586.93 
3.33575  1319440.0  8569.36 
3.34052  1329430.0  8590.29 
3.34529  1340040.0  8612.46 
3.35007  1318170.0  8527.42 
3.35484  1342460.0  8589.13 
3.35961  1328670.0  8538.68 
3.36439  1321500.0  8504.58 
3.36916  1327720.0  8510.93 
3.37393  1329490.0  8505.23 
3.37871  1336070.0  8509.88 
3.38348  1338250.0  8505.95 
3.38825  1333200.0  8473.74 
3.39303  1322810.0  8430.06 
3.3978  1326770.0  8430.47 
3.40257  1310800.0  8368.05 
3.40735  1315240.0  8373.29 
3.41212  1319610.0  8377.23 
3.41689  1329220.0  8395.05 
3.42167  1337260.0  8408.97 
3.42644  1324810.0  8358.98 
3.43121  1326980.0  8358.07 
3.43598  1325850.0  8336.95 
3.44076  1320040.0  8304.73 
3.44553  1327460.0  8318.0 
3.4503  1325910.0  8301.52 
3.45508  1326940.0  8296.09 
3.45985  1319740.0  8259.02 
3.46462  1320490.0  8253.54 
3.46939  1320360.0  8239.36 
3.47417  1323220.0  8250.75 
3.47894  1319280.0  8313.01 
3.48371  1321950.0  8370.75 
3.48848  1320210.0  8410.61 
3.49326  1321870.0  8452.45 
3.49803  1308200.0  8440.46 
3.5028  1306490.0  8463.07 
3.50757  1321250.0  8536.35 
3.51235  1321640.0  8562.27 
3.51712  1317090.0  8574.77 
3.52189  1321140.0  8606.64 
3.52666  1299970.0  8558.17 
3.53143  1319150.0  8638.8 
3.53621  1324530.0  8679.45 
3.54098  1318840.0  8676.34 
3.54575  1324090.0  8716.16 
3.55052  1335650.0  8766.15 
3.55529  1322490.0  8689.85 
3.56007  1323220.0  8589.79 
3.56484  1322090.0  8526.47 
3.56961  1309590.0  8438.14 
3.57438  1311820.0  8411.96 
3.57915  1319350.0  8398.9 
3.58392  1315180.0  8359.73 
3.5887  1315360.0  8326.19 
3.59347  1305190.0  8274.77 
3.59824  1302510.0  8241.87 
3.60301  1309270.0  8240.3 
3.60778  1329970.0  8287.9 
3.61255  1307680.0  8203.78 
3.61733  1288530.0  8121.69 
3.6221  1312410.0  8173.42 
3.62687  1303420.0  8128.17 
3.63164  1296750.0  8092.95 
3.63641  1298180.0  8081.68 
3.64118  1311150.0  8105.51 
3.64595  1312460.0  8092.8 
3.65072  1313190.0  8078.62 
3.6555  1317290.0  8075.3 
3.66027  1309580.0  8040.73 
3.66504  1311050.0  8035.7 
3.66981  1300080.0  7983.86 
3.67458  1301110.0  7972.84 
3.67935  1310940.0  7993.81 
3.68412  1312510.0  7985.08 
3.68889  1326510.0  8011.03 
3.69366  1309130.0  7949.7 
3.69843  1319030.0  7962.07 
3.7032  1303280.0  7903.5 
3.70797  1300030.0  7882.04 
3.71274  1313980.0  7913.19 
3.71751  1305940.0  7884.85 
3.72229  1309410.0  7878.15 
3.72706  1299000.0  7833.55 
3.73183  1305210.0  7842.82 
3.7366  1307470.0  7838.97 
3.74137  1310160.0  7836.01 
3.74614  1302560.0  7800.21 
3.75091  1314990.0  7829.46 
3.75568  1297940.0  7772.3 
3.76045  1296870.0  7760.77 
3.76522  1306310.0  7775.58 
3.76999  1309480.0  7772.42 
3.77476  1309470.0  7764.08 
3.77953  1301630.0  7729.84 
3.7843  1312440.0  7749.44 
3.78907  1317170.0  7752.98 
3.79384  1304610.0  7706.33 
3.79861  1310950.0  7716.71 
3.80338  1302060.0  7684.97 
3.80815  1303240.0  7675.52 
3.81292  1314600.0  7702.06 
3.81769  1309700.0  7670.5 
3.82246  1293580.0  7621.27 
3.82723  1283730.0  7579.12 
3.83199  1295350.0  7602.33 
3.83676  1297080.0  7601.98 
3.84153  1308380.0  7628.32 
3.8463  1315160.0  7635.68 
3.85107  1306770.0  7598.53 
3.85584  1304260.0  7588.34 
3.86061  1294830.0  7550.03 
3.86538  1306110.0  7570.94 
3.87015  1296680.0  7539.25 
3.87492  1303140.0  7549.23 
3.87969  1304330.0  7540.38 
3.88446  1317000.0  7571.49 
3.88923  1300400.0  7516.33 
3.89399  1313850.0  7545.13 
3.89876  1310150.0  7525.07 
3.90353  1304020.0  7497.31 
3.9083  1305480.0  7493.43 
3.91307  1303450.0  7474.75 
3.91784  1305520.0  7464.57 
3.92261  1307180.0  7456.09 
3.92738  1311140.0  7451.04 
3.93214  1305140.0  7426.59 
3.93691  1297320.0  7397.29 
3.94168  1306840.0  7413.42 
3.94645  1300090.0  7386.53 
3.95122  1300490.0  7379.32 
3.95599  1302600.0  7380.58 
3.96075  1299400.0  7361.28 
3.96552  1300380.0  7355.57 
3.97029  1309420.0  7373.96 
3.97506  1321100.0  7401.2 
3.97983  1301090.0  7334.68 
3.9846  1309200.0  7352.29 
3.98936  1307990.0  7346.82 
3.99413  1302810.0  7331.28 
3.9989  1308930.0  7349.41 
4.00367  1301480.0  7326.36 
4.00844  1308140.0  7336.69 
4.0132  1311440.0  7336.05 
4.01797  1310740.0  7325.15 
4.02274  1307280.0  7310.25 
4.02751  1303590.0  7292.07 
4.03227  1299760.0  7272.26 
4.03704  1301180.0  7271.48 
4.04181  1305900.0  7274.96 
4.04658  1305380.0  7269.3 
4.05134  1301820.0  7249.73 
4.05611  1298590.0  7232.28 
4.06088  1297580.0  7220.77 
4.06565  1297300.0  7213.22 
4.07041  1294510.0  7203.89 
4.07518  1300200.0  7209.52 
4.07995  1300640.0  7202.2 
4.08471  1303300.0  7199.72 
4.08948  1310100.0  7211.93 
4.09425  1301590.0  7184.4 
4.09902  1301020.0  7176.49 
4.10378  1291250.0  7139.79 
4.10855  1293660.0  7138.63 
4.11332  1297660.0  7145.14 
4.11808  1303490.0  7156.17 
4.12285  1300060.0  7137.09 
4.12762  1301720.0  7133.2 
4.13238  1302270.0  7128.4 
4.13715  1291320.0  7093.35 
4.14192  1295920.0  7097.66 
4.14668  1302790.0  7110.36 
4.15145  1294690.0  7079.79 
4.15622  1299760.0  7089.88 
4.16098  1305350.0  7098.92 
4.16575  1302220.0  7083.55 
4.17052  1304790.0  7081.24 
4.17528  1298790.0  7057.38 
4.18005  1307590.0  7074.58 
4.18481  1299350.0  7048.04 
4.18958  1298040.0  7042.92 
4.19435  1299540.0  7036.77 
4.19911  1303340.0  7052.97 
4.20388  1302910.0  7068.75 
4.20864  1309680.0  7100.02 
4.21341  1297780.0  7080.35 
4.21818  1305210.0  7109.73 
4.22294  1301440.0  7111.55 
4.22771  1299580.0  7120.74 
4.23247  1308420.0  7160.32 
4.23724  1297710.0  7147.89 
4.242  1297800.0  7163.37 
4.24677  1302080.0  7191.34 
4.25154  1296530.0  7192.27 
4.2563  1297190.0  7209.37 
4.26107  1309250.0  7254.4 
4.26583  1303400.0  7253.5 
4.2706  1296480.0  7247.7 
4.27536  1301300.0  7272.88 
4.28013  1306810.0  7303.94 
4.28489  1301650.0  7305.31 
4.28966  1291660.0  7286.88 
4.29442  1300220.0  7322.32 
4.29919  1301420.0  7339.3 
4.30395  1296670.0  7341.08 
4.30872  1296890.0  7353.73 
4.31348  1288780.0  7342.3 
4.31825  1288680.0  7355.43 
4.32301  1305340.0  7413.38 
4.32778  1293390.0  7391.57 
4.33254  1297810.0  7414.5 
4.33731  1299100.0  7428.35 
4.34207  1296250.0  7433.61 
4.34684  1298730.0  7456.66 
4.3516  1302320.0  7474.9 
4.35636  1298090.0  7471.91 
4.36113  1297620.0  7482.49 
4.36589  1304390.0  7515.03 
4.37066  1300780.0  7514.95 
4.37542  1297400.0  7516.02 
4.38019  1291370.0  7507.75 
4.38495  1296650.0  7538.34 
4.38971  1295020.0  7543.73 
4.39448  1300210.0  7572.47 
4.39924  1281720.0  7523.04 
4.40401  1278360.0  7526.01 
4.40877  1304900.0  7604.14 
4.41353  1291000.0  7568.46 
4.4183  1303370.0  7609.28 
4.42306  1283710.0  7545.72 
4.42782  1295100.0  7580.18 
4.43259  1299680.0  7592.3 
4.43735  1296200.0  7587.7 
4.44212  1303200.0  7618.05 
4.44688  1303510.0  7626.08 
4.45164  1302800.0  7637.25 
4.45641  1290630.0  7612.93 
4.46117  1292190.0  7626.74 
4.46593  1307230.0  7701.97 
4.4707  1290660.0  7657.45 
4.47546  1290310.0  7665.65 
4.48022  1286650.0  7662.9 
4.48499  1289550.0  7879.71 
4.48975  1300480.0  7964.79 
4.49451  1284520.0  7979.12 
4.49927  1286250.0  8038.14 
4.50404  1285910.0  8085.86 
4.5088  1288410.0  8138.27 
4.51356  1291290.0  8192.69 
4.51833  1281610.0  8201.06 
4.52309  1285800.0  8257.93 
4.52785  1289540.0  8306.76 
4.53261  1289050.0  8339.89 
4.53738  1293490.0  8387.08 
4.54214  1291960.0  8421.53 
4.5469  1282420.0  8421.01 
4.55166  1295270.0  8500.47 
4.55643  1292570.0  8523.32 
4.56119  1292450.0  8554.62 
4.56595  1293970.0  8585.66 
4.57071  1290220.0  8614.53 
4.57547  1286730.0  8625.68 
4.58024  1289110.0  8668.49 
4.585  1288790.0  8693.64 
4.58976  1296090.0  8755.35 
4.59452  1289920.0  8769.46 
4.59928  1288370.0  8788.06 
4.60405  1282890.0  8801.66 
4.60881  1294260.0  8861.41 
4.61357  1294610.0  8897.33 
4.61833  1297480.0  8935.27 
4.62309  1294580.0  8957.34 
4.62785  1293180.0  8975.32 
4.63262  1288920.0  8993.53 
4.63738  1293500.0  9033.92 
4.64214  1285080.0  9034.83 
4.6469  1279080.0  9041.92 
4.65166  1288150.0  9103.58 
4.65642  1279550.0  9093.37 
4.66118  1290500.0  9167.92 
4.66594  1297860.0  9225.08 
4.67071  1297840.0  9252.0 
4.67547  1295610.0  9266.79 
4.68023  1294050.0  9292.89 
4.68499  1296130.0  9330.83 
4.68975  1298860.0  9367.55 
4.69451  1291020.0  9363.59 
4.69927  1293090.0  9396.73 
4.70403  1282320.0  9391.56 
4.70879  1288510.0  9439.0 
4.71355  1298990.0  9506.6 
4.71831  1279400.0  9463.95 
4.72307  1289210.0  9522.94 
4.72784  1286250.0  9547.11 
4.7326  1298160.0  9610.64 
4.73736  1273780.0  9563.38 
4.74212  1296100.0  9665.99 
4.74688  1300440.0  9708.12 
4.75164  1280920.0  9668.25 
4.7564  1281830.0  9698.12 
4.76116  1274570.0  9703.83 
4.76592  1276820.0  9727.63 
4.77068  1291750.0  9817.33 
4.77544  1299200.0  9871.49 
4.7802  1287670.0  9859.92 
4.78496  1286780.0  9883.36 
4.78972  1288620.0  9920.58 
4.79448  1296150.0  9978.1 
4.79924  1292770.0  9990.4 
4.804  1295810.0  10034.8 
4.80875  1290920.0  10037.9 
4.81351  1299350.0  10104.1 
4.81827  1291090.0  10100.7 
4.82303  1296670.0  10154.2 
4.82779  1300400.0  10194.4 
4.83255  1275290.0  10099.9 
4.83731  1276170.0  10092.9 
4.84207  1278440.0  10097.0 
4.84683  1300570.0  10184.7 
4.85159  1286370.0  10145.4 
4.85635  1296050.0  10190.8 
4.86111  1305310.0  10244.0 
4.86587  1288130.0  10184.1 
4.87062  1283110.0  10171.8 
4.87538  1293230.0  10220.4 
4.88014  1288450.0  10231.7 
4.8849  1272680.0  10191.9 
4.88966  1293290.0  10297.3 
4.89442  1293880.0  10334.3 
4.89918  1294310.0  10364.7 
4.90393  1290190.0  10371.5 
4.90869  1279850.0  10365.7 
4.91345  1291250.0  10440.0 
4.91821  1301740.0  10510.8 
4.92297  1304170.0  10548.4 
4.92773  1295880.0  10547.6 
4.93248  1291790.0  10559.7 
4.93724  1293880.0  10596.2 
4.942  1286460.0  10590.0 
4.94676  1277910.0  10588.1 
4.95152  1294940.0  10692.8 
4.95627  1296940.0  10721.9 
4.96103  1286310.0  10709.2 
4.96579  1299990.0  10797.6 
4.97055  1289110.0  10788.5 
4.9753  1293020.0  10833.9 
4.98006  1278390.0  10802.4 
4.98482  1284380.0  10858.7 
4.98958  1284790.0  10889.5 
4.99433  1283790.0  10911.2 
4.99909  1287590.0  10964.6 
5.00385  1278450.0  10955.5 
5.00861  1286730.0  11022.1 
5.01336  1305480.0  11132.9 
5.01812  1312660.0  11194.5 
5.02288  1268160.0  11037.2 
5.02763  1283100.0  11132.9 
5.03239  1291890.0  11202.3 
5.03715  1261390.0  11103.6 
5.04191  1288910.0  11252.2 
5.04666  1293000.0  11306.7 
5.05142  1300850.0  11370.2 
5.05618  1283380.0  11326.8 
5.06093  1287690.0  11376.9 
5.06569  1298540.0  11460.2 
5.07045  1289840.0  11461.6 
5.0752  1295610.0  11522.1 
5.07996  1275560.0  11459.5 
5.08471  1278590.0  11502.6 
5.08947  1281540.0  11555.2 
5.09423  1298330.0  11666.2 
5.09898  1297910.0  11700.7 
5.10374  1297410.0  11733.5 
5.1085  1291450.0  11738.6 
5.11325  1286350.0  11755.4 
5.11801  1287790.0  11798.0 
5.12276  1299530.0  11883.8 
5.12752  1286710.0  11855.0 
5.13227  1294730.0  11942.1 
5.13703  1286110.0  11934.1 
5.14179  1294810.0  12011.2 
5.14654  1291720.0  12035.1 
5.1513  1299820.0  12104.3 
5.15605  1290570.0  12099.0 
5.16081  1286100.0  12112.4 
5.16556  1276880.0  12099.1 
5.17032  1288070.0  12206.1 
5.17507  1298840.0  12299.0 
5.17983  1290640.0  12289.5 
5.18458  1284180.0  12300.2 
5.18934  1289380.0  12367.5 
5.19409  1293100.0  12429.3 
5.19885  1286590.0  12435.4 
5.2036  1292660.0  12500.7 
5.20836  1281320.0  12488.6 
5.21311  1281780.0  12528.7 
5.21787  1275960.0  12537.8 
5.22262  1292360.0  12654.8 
5.22738  1287300.0  12672.1 
5.23213  1306760.0  12820.0 
5.23689  1292150.0  12779.1 
5.24164  1270310.0  12722.0 
5.2464  1275570.0  12802.1 
5.25115  1295270.0  12937.4 
5.2559  1288110.0  12945.9 
5.26066  1309940.0  13102.6 
5.26541  1297830.0  13070.7 
5.27017  1313210.0  13204.5 
5.27492  1292010.0  13125.2 
5.27967  1290600.0  13169.1 
5.28443  1281080.0  13173.4 
5.28918  1290550.0  13271.9 
5.29394  1277010.0  13241.5 
5.29869  1288030.0  13331.6 
5.30344  1297680.0  13459.3 
5.3082  1301370.0  13508.6 
5.31295  1297830.0  13533.6 
5.3177  1288140.0  13533.0 
5.32246  1310720.0  13700.8 
5.32721  1292820.0  13670.1 
5.33196  1291750.0  13710.1 
5.33672  1289440.0  13749.1 
5.34147  1308550.0  13897.4 
5.34622  1299200.0  13892.4 
5.35098  1309890.0  14016.6 
5.35573  1292160.0  13964.8 
5.36048  1277250.0  13942.7 
5.36524  1293680.0  14087.4 
5.36999  1309060.0  14240.9 
5.37474  1293150.0  14178.6 
5.37949  1282300.0  14177.0 
5.38425  1296310.0  14312.5 
5.389  1295970.0  14383.1 
5.39375  1270200.0  14278.3 
5.3985  1282900.0  14422.7 
5.40326  1288890.0  14520.8 
5.40801  1271180.0  14466.1 
5.41276  1275910.0  14545.5 
5.41751  1269750.0  14542.0 
5.42227  1301390.0  14740.0 
5.42702  1295480.0  14697.2 
5.43177  1291400.0  14689.0 
5.43652  1283850.0  14652.6 
5.44127  1304890.0  14777.3 
5.44603  1315010.0  14849.3 
5.45078  1289920.0  14712.6 
5.45553  1273760.0  14637.7 
5.46028  1300630.0  14782.3 
5.46503  1290180.0  14737.5 
5.46978  1292040.0  14793.7 
5.47454  1302160.0  14889.8 
5.47929  1303080.0  14949.7 
5.48404  1311000.0  15073.3 
5.48879  1302860.0  15082.4 
5.49354  1293540.0  15096.2 
5.49829  1296960.0  15196.1 
5.50304  1298250.0  15248.5 
5.50779  1305280.0  15360.6 
5.51255  1305840.0  15423.6 
5.5173  1274990.0  15322.8 
5.52205  1300530.0  15520.9 
5.5268  1295030.0  15561.9 
5.53155  1301410.0  15688.1 
5.5363  1311650.0  15799.8 
5.54105  1298510.0  15795.6 
5.5458  1313520.0  15953.0 
5.55055  1319720.0  16083.4 
5.5553  1303070.0  16032.9 
5.56005  1297840.0  16079.8 
5.5648  1315480.0  16283.8 
5.56955  1320380.0  16369.2 
5.5743  1288680.0  16253.2 
5.57905  1293330.0  16354.6 
5.5838  1289010.0  16427.5 
5.58855  1288510.0  16477.6 
5.5933  1263860.0  16407.5 
5.59805  1301360.0  16757.9 
5.6028  1314480.0  16898.7 
5.60755  1289570.0  16812.1 
5.6123  1307510.0  17005.6 
5.61705  1301950.0  17079.0 
5.6218  1300420.0  17150.1 
5.62655  1302120.0  17262.4 
5.6313  1293680.0  17302.5 
5.63605  1284870.0  17320.5 
5.6408  1307470.0  17560.4 
5.64555  1304780.0  17626.5 
5.6503  1277880.0  17544.5 
5.65505  1287640.0  17718.9 
5.6598  1299880.0  17872.9 
5.66454  1324070.0  18192.5 
5.66929  1312510.0  18203.0 
5.67404  1323070.0  18346.2 
5.67879  1301420.0  18337.2 
5.68354  1300630.0  18421.6 
5.68829  1316200.0  18609.0 
5.69304  1312380.0  18750.9 
5.69779  1287580.0  18680.6 
5.70253  1298880.0  18827.2 
5.70728  1288040.0  18931.3 
5.71203  1293310.0  19051.7 
5.71678  1298160.0  19181.5 
5.72153  1297360.0  19347.4 
5.72628  1283560.0  19334.9 
5.73102  1312860.0  19693.7 
5.73577  1320470.0  19920.9 
5.74052  1297260.0  19869.2 
5.74527  1310380.0  20060.1 
5.75002  1295040.0  20117.6 
5.75476  1304990.0  20319.4 
5.75951  1286890.0  20308.8 
5.76426  1316190.0  20642.3 
5.76901  1313500.0  20806.1 
5.77375  1293610.0  20795.3 
5.7785  1295100.0  20938.4 
5.78325  1309700.0  21264.9 
5.788  1294090.0  21247.6 
5.79274  1299720.0  21515.5 
5.79749  1304400.0  21705.9 
5.80224  1297660.0  21760.6 
5.80698  1286690.0  21943.6 
5.81173  1313460.0  22347.7 
5.81648  1301100.0  22349.2 
5.82123  1291620.0  22528.3 
5.82597  1270440.0  22516.7 
5.83072  1314210.0  23088.2 
5.83547  1295830.0  23189.6 
5.84021  1312760.0  23484.1 
5.84496  1301310.0  23577.6 
5.84971  1297020.0  23813.4 
5.85445  1289900.0  24257.5 
5.8592  1305370.0  24791.5 
5.86394  1313880.0  25571.7 
5.86869  1297850.0  26476.7 
5.87344  1302430.0  27966.5 
5.87818  1277650.0  29459.0 
5.88293  1301230.0  31213.4 
5.88767  1302990.0  33533.9 
5.89242  1294950.0  35576.9 
5.89717  1258980.0  38030.7 
5.90191  1283120.0  42710.1 
5.90666  1296410.0  46735.7 
5.9114  1291420.0  53050.2 
5.91615  1299920.0  66847.6 
5.92089  1072190.0  86240.8 
